OOIBase32 Version 2.0.1.2 Data File
++++++++++++++++++++++++++++++++++++
Date: 02-19-2024, 14:16:19
User: 
Spectrometer Serial Number: ADUD6702
Spectrometer Channel: Master
Integration Time (msec): 21
Spectra Averaged: 1
Boxcar Smoothing: 0
Correct for Electrical Dark: Enabled
Time Normalized: Disabled
Dual-beam Reference: Disabled
Reference Channel: Master
Temperature: Not acquired
Spectrometer Type: S2000
ADC Type: ADC1000USB
Number of Pixels in File: 2048
Graph Title: 
>>>>>Begin Spectral Data<<<<<
177.27	0.000
177.66	0.000
178.05	0.000
178.43	0.000
178.82	0.188
179.21	-0.149
179.59	0.000
179.98	0.000
180.36	0.000
180.75	0.831
181.14	0.000
181.52	1.328
181.91	0.000
182.29	0.000
182.68	0.000
183.07	0.000
183.45	-0.433
183.84	0.000
184.22	-0.118
184.61	0.000
185.00	0.000
185.38	0.000
185.77	0.000
186.15	0.189
186.54	0.112
186.93	0.265
187.31	0.063
187.70	-0.526
188.08	0.000
188.47	-0.646
188.85	-0.073
189.24	0.000
189.62	0.000
190.01	1.554
190.39	-0.304
190.78	-0.029
191.17	0.000
191.55	0.000
191.94	0.000
192.32	0.138
192.71	0.000
193.09	1.328
193.48	0.000
193.86	-0.243
194.25	-1.205
194.63	-0.330
195.02	0.000
195.40	-0.259
195.79	0.793
196.17	-0.330
196.56	0.287
196.94	0.138
197.33	-0.302
197.71	0.231
198.10	0.213
198.48	-0.160
198.87	0.220
199.25	0.000
199.63	0.000
200.02	1.455
200.40	0.516
200.79	0.000
201.17	0.146
201.56	0.637
201.94	0.866
202.33	-0.210
202.71	-0.511
203.09	0.000
203.48	0.262
203.86	-0.085
204.25	0.058
204.63	0.000
205.02	-0.103
205.40	1.328
205.78	0.220
206.17	0.130
206.55	-0.118
206.94	0.138
207.32	0.535
207.70	0.000
208.09	0.000
208.47	0.000
208.86	0.000
209.24	0.000
209.62	0.000
210.01	0.157
210.39	0.000
210.77	-0.443
211.16	-0.056
211.54	-0.015
211.92	0.181
212.31	0.000
212.69	0.350
213.07	-0.193
213.46	0.078
213.84	-0.259
214.23	0.100
214.61	-0.386
214.99	0.034
215.37	0.098
215.76	0.262
216.14	-0.043
216.52	-0.303
216.91	0.000
217.29	0.598
217.67	0.000
218.06	0.000
218.44	0.000
218.82	0.053
219.21	-0.011
219.59	0.077
219.97	0.098
220.35	-0.956
220.74	0.334
221.12	0.000
221.50	0.344
221.88	0.220
222.27	0.000
222.65	-0.191
223.03	-0.017
223.42	-0.533
223.80	0.454
224.18	0.276
224.56	0.000
224.94	-0.153
225.33	0.265
225.71	0.000
226.09	0.000
226.47	0.338
226.86	0.063
227.24	0.000
227.62	0.637
228.00	0.000
228.38	1.455
228.77	0.000
229.15	0.570
229.53	0.535
229.91	0.063
230.29	0.350
230.68	-0.243
231.06	0.000
231.44	1.455
231.82	0.000
232.20	-0.501
232.59	0.276
232.97	0.000
233.35	-0.303
233.73	-0.366
234.11	0.000
234.49	-0.740
234.87	-0.053
235.26	0.000
235.64	-0.123
236.02	0.224
236.40	0.146
236.78	0.344
237.16	0.188
237.54	-0.243
237.93	-0.073
238.31	-0.137
238.69	0.276
239.07	-0.160
239.45	0.162
239.83	-0.193
240.21	0.000
240.59	-0.320
240.97	0.000
241.35	0.063
241.74	-0.452
242.12	0.412
242.50	-0.118
242.88	0.000
243.26	0.386
243.64	0.344
244.02	0.350
244.40	0.000
244.78	-0.640
245.16	0.363
245.54	-0.384
245.92	-0.526
246.30	0.000
246.68	0.000
247.06	0.000
247.44	-0.022
247.82	-0.459
248.20	0.130
248.59	-0.302
248.97	-0.116
249.35	0.535
249.73	0.112
250.11	0.000
250.49	0.000
250.87	-0.304
251.25	-0.330
251.63	-0.239
252.01	0.412
252.39	0.000
252.77	0.000
253.15	0.000
253.52	0.000
253.90	0.793
254.28	-0.646
254.66	0.198
255.04	-0.243
255.42	0.000
255.80	0.000
256.18	0.462
256.56	0.098
256.94	0.089
257.32	0.344
257.70	0.058
258.08	-0.411
258.46	-0.511
258.84	-0.160
259.22	0.077
259.60	0.000
259.98	0.000
260.35	0.941
260.73	0.034
261.11	-0.013
261.49	-0.302
261.87	-0.029
262.25	0.370
262.63	0.286
263.01	0.213
263.39	0.000
263.77	0.000
264.14	0.000
264.52	0.047
264.90	0.000
265.28	0.000
265.66	1.634
266.04	0.000
266.42	-0.137
266.79	0.146
267.17	0.223
267.55	-0.103
267.93	0.000
268.31	0.793
268.69	0.053
269.06	-0.017
269.44	0.185
269.82	0.120
270.20	0.344
270.58	0.000
270.96	-0.740
271.33	0.030
271.71	-0.424
272.09	0.112
272.47	-0.443
272.85	-0.100
273.22	1.328
273.60	0.213
273.98	0.000
274.36	0.338
274.73	0.000
275.11	0.000
275.49	-0.015
275.87	-0.029
276.25	-0.243
276.62	0.467
277.00	0.637
277.38	-0.053
277.76	-0.160
278.13	0.077
278.51	1.328
278.89	0.000
279.26	0.046
279.64	-1.055
280.02	0.000
280.40	-0.303
280.77	-0.526
281.15	0.262
281.53	-0.095
281.90	0.220
282.28	0.130
282.66	-0.034
283.04	1.554
283.41	0.188
283.79	-0.116
284.17	0.000
284.54	0.000
284.92	-0.234
285.30	0.637
285.67	0.232
286.05	0.098
286.43	-0.073
286.80	0.000
287.18	0.443
287.56	1.147
287.93	0.181
288.31	0.291
288.69	0.000
289.06	0.412
289.44	0.262
289.81	-0.443
290.19	0.386
290.57	-0.017
290.94	0.373
291.32	0.000
291.70	0.000
292.07	0.240
292.45	-0.053
292.82	-1.076
293.20	-0.053
293.58	-0.149
293.95	0.157
294.33	-0.210
294.70	0.183
295.08	0.000
295.45	0.262
295.83	0.000
296.21	0.238
296.58	0.443
296.96	0.000
297.33	0.000
297.71	-0.433
298.08	0.063
298.46	0.000
298.83	0.053
299.21	0.000
299.58	0.130
299.96	-0.073
300.34	0.000
300.71	0.000
301.09	0.286
301.46	-0.123
301.84	0.000
302.21	0.000
302.59	0.000
302.96	0.089
303.34	1.455
303.71	0.000
304.09	0.363
304.46	-0.111
304.84	0.000
305.21	0.024
305.58	0.036
305.96	0.000
306.33	0.283
306.71	0.137
307.08	0.157
307.46	0.112
307.83	-0.080
308.21	0.000
308.58	-0.015
308.96	-0.433
309.33	-0.022
309.70	0.238
310.08	0.000
310.45	0.000
310.83	0.557
311.20	0.535
311.57	0.223
311.95	0.112
312.32	0.000
312.70	-0.042
313.07	0.078
313.44	0.220
313.82	-0.149
314.19	0.866
314.57	0.098
314.94	-0.034
315.31	0.000
315.69	0.866
316.06	0.422
316.43	0.598
316.81	-0.165
317.18	-0.103
317.55	-0.210
317.93	0.026
318.30	-0.646
318.68	-0.186
319.05	-0.147
319.42	0.000
319.79	-0.567
320.17	0.929
320.54	0.000
320.91	-0.088
321.29	0.000
321.66	-0.053
322.03	0.286
322.41	0.220
322.78	0.277
323.15	0.000
323.53	0.289
323.90	0.030
324.27	-0.022
324.64	0.030
325.02	-0.017
325.39	-0.118
325.76	0.264
326.13	0.322
326.51	0.843
326.88	0.188
327.25	1.328
327.62	-0.153
328.00	0.511
328.37	-0.029
328.74	-0.015
329.11	0.406
329.49	0.843
329.86	0.370
330.23	0.223
330.60	-0.022
330.97	-0.055
331.35	0.162
331.72	0.078
332.09	0.351
332.46	0.097
332.83	0.390
333.21	-0.013
333.58	0.030
333.95	0.895
334.32	0.180
334.69	0.151
335.06	0.156
335.44	-0.015
335.81	-0.069
336.18	0.097
336.55	0.325
336.92	0.403
337.29	0.089
337.67	-0.042
338.04	0.287
338.41	0.170
338.78	-0.135
339.15	0.182
339.52	0.152
339.89	0.116
340.26	0.292
340.63	0.071
341.01	0.295
341.38	0.181
341.75	0.179
342.12	0.181
342.49	0.340
342.86	-0.013
343.23	0.221
343.60	0.181
343.97	0.079
344.34	0.182
344.71	0.146
345.08	0.092
345.46	-0.010
345.83	-0.024
346.20	0.252
346.57	0.213
346.94	0.130
347.31	0.018
347.68	0.193
348.05	0.159
348.42	0.136
348.79	0.294
349.16	0.146
349.53	0.157
349.90	0.060
350.27	0.056
350.64	0.138
351.01	0.103
351.38	0.098
351.75	0.087
352.12	0.112
352.49	0.016
352.86	0.217
353.23	0.081
353.60	0.134
353.97	0.113
354.34	0.186
354.71	0.050
355.08	0.328
355.44	0.112
355.81	0.091
356.18	-0.051
356.55	0.052
356.92	0.140
357.29	0.081
357.66	0.272
358.03	-0.020
358.40	0.062
358.77	0.133
359.14	0.140
359.51	0.177
359.88	0.152
360.24	0.177
360.61	0.110
360.98	0.103
361.35	0.123
361.72	0.093
362.09	0.116
362.46	0.044
362.83	0.074
363.19	0.062
363.56	0.102
363.93	0.130
364.30	0.076
364.67	0.083
365.04	0.133
365.41	0.146
365.77	0.144
366.14	0.059
366.51	0.133
366.88	0.085
367.25	0.110
367.61	0.087
367.98	0.121
368.35	0.102
368.72	0.073
369.09	0.127
369.45	0.119
369.82	0.112
370.19	0.109
370.56	0.115
370.93	0.132
371.29	0.112
371.66	0.143
372.03	0.109
372.40	0.142
372.76	0.107
373.13	0.115
373.50	0.154
373.87	0.110
374.23	0.131
374.60	0.132
374.97	0.126
375.34	0.078
375.70	0.079
376.07	0.095
376.44	0.081
376.80	0.100
377.17	0.109
377.54	0.096
377.91	0.092
378.27	0.133
378.64	0.145
379.01	0.126
379.37	0.115
379.74	0.086
380.11	0.142
380.47	0.122
380.84	0.114
381.21	0.114
381.57	0.141
381.94	0.137
382.31	0.085
382.67	0.109
383.04	0.091
383.41	0.123
383.77	0.135
384.14	0.094
384.50	0.113
384.87	0.110
385.24	0.087
385.60	0.114
385.97	0.114
386.34	0.123
386.70	0.113
387.07	0.127
387.43	0.137
387.80	0.098
388.16	0.084
388.53	0.128
388.90	0.126
389.26	0.095
389.63	0.088
389.99	0.105
390.36	0.114
390.72	0.093
391.09	0.145
391.46	0.116
391.82	0.127
392.19	0.119
392.55	0.120
392.92	0.132
393.28	0.143
393.65	0.117
394.01	0.116
394.38	0.138
394.74	0.121
395.11	0.115
395.47	0.138
395.84	0.103
396.20	0.079
396.57	0.123
396.93	0.132
397.30	0.118
397.66	0.142
398.03	0.095
398.39	0.105
398.76	0.128
399.12	0.106
399.48	0.123
399.85	0.113
400.21	0.096
400.58	0.122
400.94	0.127
401.31	0.098
401.67	0.102
402.04	0.110
402.40	0.121
402.76	0.117
403.13	0.120
403.49	0.104
403.86	0.117
404.22	0.123
404.58	0.128
404.95	0.121
405.31	0.113
405.68	0.106
406.04	0.127
406.40	0.104
406.77	0.135
407.13	0.129
407.49	0.112
407.86	0.115
408.22	0.108
408.58	0.112
408.95	0.123
409.31	0.115
409.67	0.125
410.04	0.128
410.40	0.115
410.76	0.120
411.13	0.109
411.49	0.118
411.85	0.116
412.22	0.120
412.58	0.136
412.94	0.126
413.31	0.113
413.67	0.129
414.03	0.117
414.39	0.122
414.76	0.116
415.12	0.125
415.48	0.115
415.84	0.114
416.21	0.127
416.57	0.129
416.93	0.108
417.29	0.117
417.66	0.108
418.02	0.101
418.38	0.130
418.74	0.120
419.11	0.105
419.47	0.123
419.83	0.118
420.19	0.120
420.55	0.124
420.92	0.121
421.28	0.114
421.64	0.129
422.00	0.122
422.36	0.123
422.73	0.125
423.09	0.128
423.45	0.123
423.81	0.131
424.17	0.125
424.53	0.119
424.90	0.128
425.26	0.126
425.62	0.124
425.98	0.123
426.34	0.131
426.70	0.127
427.06	0.131
427.43	0.125
427.79	0.110
428.15	0.116
428.51	0.130
428.87	0.132
429.23	0.128
429.59	0.133
429.95	0.126
430.31	0.126
430.67	0.136
431.03	0.124
431.40	0.124
431.76	0.130
432.12	0.138
432.48	0.136
432.84	0.136
433.20	0.132
433.56	0.132
433.92	0.132
434.28	0.134
434.64	0.138
435.00	0.122
435.36	0.130
435.72	0.109
436.08	0.129
436.44	0.124
436.80	0.135
437.16	0.127
437.52	0.122
437.88	0.130
438.24	0.135
438.60	0.138
438.96	0.132
439.32	0.128
439.68	0.131
440.04	0.123
440.40	0.136
440.76	0.135
441.12	0.135
441.48	0.126
441.84	0.138
442.20	0.130
442.56	0.130
442.92	0.129
443.28	0.122
443.63	0.121
443.99	0.129
444.35	0.127
444.71	0.137
445.07	0.140
445.43	0.134
445.79	0.124
446.15	0.137
446.51	0.126
446.87	0.140
447.22	0.132
447.58	0.130
447.94	0.141
448.30	0.148
448.66	0.130
449.02	0.142
449.38	0.149
449.74	0.148
450.09	0.138
450.45	0.136
450.81	0.132
451.17	0.136
451.53	0.149
451.89	0.136
452.24	0.145
452.60	0.142
452.96	0.146
453.32	0.138
453.68	0.133
454.03	0.137
454.39	0.132
454.75	0.136
455.11	0.133
455.46	0.130
455.82	0.136
456.18	0.139
456.54	0.138
456.90	0.138
457.25	0.138
457.61	0.139
457.97	0.140
458.33	0.152
458.68	0.139
459.04	0.140
459.40	0.147
459.75	0.150
460.11	0.147
460.47	0.141
460.83	0.142
461.18	0.138
461.54	0.142
461.90	0.157
462.25	0.144
462.61	0.151
462.97	0.154
463.32	0.155
463.68	0.148
464.04	0.154
464.39	0.152
464.75	0.148
465.11	0.152
465.46	0.150
465.82	0.142
466.18	0.150
466.53	0.150
466.89	0.159
467.25	0.154
467.60	0.158
467.96	0.150
468.31	0.149
468.67	0.153
469.03	0.159
469.38	0.154
469.74	0.152
470.09	0.161
470.45	0.152
470.81	0.152
471.16	0.161
471.52	0.152
471.87	0.145
472.23	0.157
472.59	0.155
472.94	0.155
473.30	0.154
473.65	0.158
474.01	0.153
474.36	0.153
474.72	0.160
475.07	0.163
475.43	0.163
475.78	0.157
476.14	0.161
476.49	0.162
476.85	0.160
477.20	0.168
477.56	0.157
477.91	0.160
478.27	0.160
478.62	0.166
478.98	0.174
479.33	0.156
479.69	0.162
480.04	0.163
480.40	0.173
480.75	0.171
481.11	0.169
481.46	0.168
481.81	0.168
482.17	0.164
482.52	0.166
482.88	0.165
483.23	0.167
483.59	0.176
483.94	0.165
484.29	0.176
484.65	0.170
485.00	0.174
485.36	0.165
485.71	0.176
486.06	0.177
486.42	0.173
486.77	0.186
487.13	0.185
487.48	0.170
487.83	0.177
488.19	0.174
488.54	0.178
488.89	0.178
489.25	0.181
489.60	0.176
489.95	0.181
490.31	0.176
490.66	0.178
491.01	0.182
491.37	0.170
491.72	0.183
492.07	0.177
492.43	0.179
492.78	0.178
493.13	0.185
493.48	0.190
493.84	0.192
494.19	0.181
494.54	0.178
494.89	0.183
495.25	0.188
495.60	0.184
495.95	0.193
496.31	0.186
496.66	0.190
497.01	0.188
497.36	0.187
497.71	0.192
498.07	0.183
498.42	0.190
498.77	0.191
499.12	0.189
499.48	0.190
499.83	0.195
500.18	0.189
500.53	0.196
500.88	0.187
501.24	0.190
501.59	0.190
501.94	0.195
502.29	0.192
502.64	0.198
502.99	0.191
503.35	0.202
503.70	0.197
504.05	0.198
504.40	0.189
504.75	0.196
505.10	0.192
505.45	0.199
505.80	0.199
506.16	0.194
506.51	0.193
506.86	0.205
507.21	0.200
507.56	0.201
507.91	0.193
508.26	0.200
508.61	0.208
508.96	0.203
509.31	0.197
509.67	0.200
510.02	0.203
510.37	0.204
510.72	0.199
511.07	0.205
511.42	0.206
511.77	0.195
512.12	0.205
512.47	0.201
512.82	0.201
513.17	0.204
513.52	0.206
513.87	0.203
514.22	0.198
514.57	0.212
514.92	0.209
515.27	0.205
515.62	0.204
515.97	0.207
516.32	0.205
516.67	0.205
517.02	0.211
517.37	0.206
517.72	0.211
518.07	0.207
518.42	0.215
518.77	0.213
519.12	0.205
519.47	0.207
519.82	0.208
520.16	0.209
520.51	0.212
520.86	0.207
521.21	0.213
521.56	0.208
521.91	0.210
522.26	0.211
522.61	0.203
522.96	0.208
523.31	0.209
523.65	0.213
524.00	0.211
524.35	0.210
524.70	0.211
525.05	0.212
525.40	0.211
525.75	0.213
526.09	0.211
526.44	0.210
526.79	0.212
527.14	0.207
527.49	0.214
527.84	0.214
528.18	0.218
528.53	0.211
528.88	0.210
529.23	0.216
529.58	0.210
529.92	0.211
530.27	0.213
530.62	0.217
530.97	0.211
531.32	0.212
531.66	0.212
532.01	0.218
532.36	0.219
532.71	0.218
533.05	0.207
533.40	0.217
533.75	0.213
534.10	0.213
534.44	0.219
534.79	0.216
535.14	0.210
535.48	0.212
535.83	0.217
536.18	0.215
536.53	0.217
536.87	0.212
537.22	0.213
537.57	0.209
537.91	0.223
538.26	0.215
538.61	0.221
538.95	0.219
539.30	0.218
539.65	0.214
539.99	0.216
540.34	0.223
540.69	0.220
541.03	0.218
541.38	0.215
541.73	0.227
542.07	0.213
542.42	0.222
542.76	0.217
543.11	0.222
543.46	0.221
543.80	0.218
544.15	0.219
544.49	0.220
544.84	0.217
545.18	0.225
545.53	0.221
545.88	0.223
546.22	0.217
546.57	0.218
546.91	0.223
547.26	0.219
547.60	0.215
547.95	0.218
548.29	0.222
548.64	0.220
548.99	0.217
549.33	0.224
549.68	0.221
550.02	0.226
550.37	0.226
550.71	0.223
551.06	0.223
551.40	0.227
551.75	0.221
552.09	0.229
552.43	0.231
552.78	0.226
553.12	0.231
553.47	0.224
553.81	0.227
554.16	0.226
554.50	0.225
554.85	0.226
555.19	0.224
555.54	0.229
555.88	0.225
556.22	0.229
556.57	0.226
556.91	0.226
557.26	0.229
557.60	0.225
557.94	0.234
558.29	0.230
558.63	0.229
558.98	0.231
559.32	0.222
559.66	0.228
560.01	0.228
560.35	0.224
560.69	0.226
561.04	0.226
561.38	0.229
561.72	0.224
562.07	0.227
562.41	0.223
562.75	0.224
563.10	0.229
563.44	0.223
563.78	0.225
564.13	0.226
564.47	0.223
564.81	0.226
565.16	0.220
565.50	0.226
565.84	0.224
566.18	0.223
566.53	0.220
566.87	0.228
567.21	0.222
567.55	0.223
567.90	0.221
568.24	0.219
568.58	0.220
568.92	0.223
569.27	0.216
569.61	0.221
569.95	0.219
570.29	0.219
570.63	0.212
570.98	0.215
571.32	0.210
571.66	0.217
572.00	0.218
572.34	0.215
572.69	0.212
573.03	0.214
573.37	0.212
573.71	0.211
574.05	0.214
574.39	0.216
574.74	0.211
575.08	0.213
575.42	0.212
575.76	0.204
576.10	0.202
576.44	0.206
576.78	0.209
577.12	0.203
577.47	0.205
577.81	0.210
578.15	0.198
578.49	0.202
578.83	0.202
579.17	0.202
579.51	0.209
579.85	0.197
580.19	0.200
580.53	0.195
580.87	0.199
581.21	0.200
581.55	0.201
581.89	0.197
582.24	0.193
582.58	0.198
582.92	0.199
583.26	0.196
583.60	0.196
583.94	0.194
584.28	0.196
584.62	0.198
584.96	0.200
585.30	0.188
585.64	0.197
585.98	0.194
586.32	0.190
586.66	0.193
586.99	0.181
587.33	0.189
587.67	0.194
588.01	0.192
588.35	0.193
588.69	0.190
589.03	0.189
589.37	0.190
589.71	0.188
590.05	0.188
590.39	0.192
590.73	0.189
591.07	0.189
591.41	0.188
591.74	0.192
592.08	0.195
592.42	0.190
592.76	0.188
593.10	0.191
593.44	0.191
593.78	0.197
594.12	0.193
594.45	0.193
594.79	0.194
595.13	0.191
595.47	0.192
595.81	0.187
596.15	0.189
596.48	0.191
596.82	0.197
597.16	0.194
597.50	0.191
597.84	0.191
598.17	0.197
598.51	0.191
598.85	0.198
599.19	0.196
599.53	0.196
599.86	0.197
600.20	0.204
600.54	0.202
600.88	0.205
601.21	0.197
601.55	0.201
601.89	0.204
602.23	0.205
602.56	0.203
602.90	0.199
603.24	0.198
603.57	0.201
603.91	0.204
604.25	0.203
604.58	0.203
604.92	0.201
605.26	0.202
605.60	0.200
605.93	0.202
606.27	0.200
606.61	0.196
606.94	0.203
607.28	0.198
607.61	0.199
607.95	0.197
608.29	0.205
608.62	0.196
608.96	0.201
609.30	0.207
609.63	0.195
609.97	0.197
610.30	0.197
610.64	0.194
610.98	0.191
611.31	0.191
611.65	0.190
611.98	0.192
612.32	0.191
612.66	0.191
612.99	0.190
613.33	0.192
613.66	0.191
614.00	0.186
614.33	0.186
614.67	0.182
615.00	0.186
615.34	0.183
615.67	0.187
616.01	0.182
616.34	0.177
616.68	0.182
617.01	0.186
617.35	0.183
617.68	0.182
618.02	0.180
618.35	0.185
618.69	0.186
619.02	0.187
619.36	0.180
619.69	0.178
620.03	0.181
620.36	0.183
620.70	0.175
621.03	0.183
621.37	0.173
621.70	0.174
622.03	0.173
622.37	0.173
622.70	0.170
623.04	0.175
623.37	0.173
623.70	0.171
624.04	0.168
624.37	0.167
624.71	0.170
625.04	0.164
625.37	0.161
625.71	0.162
626.04	0.158
626.37	0.157
626.71	0.153
627.04	0.151
627.37	0.149
627.71	0.153
628.04	0.153
628.37	0.146
628.71	0.147
629.04	0.143
629.37	0.146
629.71	0.145
630.04	0.144
630.37	0.137
630.70	0.135
631.04	0.139
631.37	0.134
631.70	0.132
632.04	0.123
632.37	0.134
632.70	0.130
633.03	0.128
633.37	0.130
633.70	0.124
634.03	0.123
634.36	0.124
634.69	0.124
635.03	0.122
635.36	0.122
635.69	0.119
636.02	0.116
636.35	0.120
636.69	0.113
637.02	0.110
637.35	0.110
637.68	0.109
638.01	0.110
638.34	0.109
638.68	0.110
639.01	0.106
639.34	0.103
639.67	0.104
640.00	0.100
640.33	0.100
640.66	0.106
641.00	0.098
641.33	0.099
641.66	0.093
641.99	0.097
642.32	0.100
642.65	0.098
642.98	0.098
643.31	0.095
643.64	0.091
643.97	0.090
644.30	0.096
644.63	0.092
644.96	0.089
645.30	0.087
645.63	0.091
645.96	0.086
646.29	0.093
646.62	0.085
646.95	0.086
647.28	0.082
647.61	0.085
647.94	0.082
648.27	0.081
648.60	0.078
648.93	0.075
649.26	0.074
649.59	0.079
649.92	0.086
650.25	0.080
650.58	0.085
650.90	0.078
651.23	0.081
651.56	0.080
651.89	0.078
652.22	0.081
652.55	0.076
652.88	0.075
653.21	0.084
653.54	0.084
653.87	0.072
654.20	0.075
654.53	0.069
654.85	0.076
655.18	0.073
655.51	0.075
655.84	0.075
656.17	0.078
656.50	0.072
656.83	0.078
657.16	0.069
657.48	0.072
657.81	0.069
658.14	0.075
658.47	0.079
658.80	0.072
659.12	0.075
659.45	0.073
659.78	0.074
660.11	0.077
660.44	0.070
660.76	0.065
661.09	0.077
661.42	0.071
661.75	0.074
662.08	0.069
662.40	0.076
662.73	0.067
663.06	0.070
663.39	0.073
663.71	0.068
664.04	0.075
664.37	0.071
664.70	0.065
665.02	0.065
665.35	0.073
665.68	0.060
666.00	0.068
666.33	0.062
666.66	0.066
666.98	0.070
667.31	0.069
667.64	0.069
667.96	0.062
668.29	0.063
668.62	0.067
668.94	0.063
669.27	0.063
669.60	0.066
669.92	0.066
670.25	0.066
670.58	0.065
670.90	0.062
671.23	0.066
671.55	0.064
671.88	0.064
672.21	0.065
672.53	0.061
